117-164G,117-164G,164G,164G,117G,117G,WT,WT
Wavelength (nm),Intensity (a.u.),Wavelength (nm),Intensity (a.u.),Wavelength (nm),Intensity (a.u.),Wavelength (nm),Intensity (a.u.)
480,0.057401046,480,-0.033155948,480,0.041719511,480,0.075065687
481.0400085,0.024781303,481.0400085,0.049450684,481.0400085,0.0414415,481.0400085,0.081668653
481.9400024,0.098751619,481.9400024,0.091591097,481.9400024,-0.05051313,481.9400024,0.07504753
482.980011,0.032801673,482.980011,0,482.980011,0.041375998,482.980011,0.049171057
484.019989,0.043397881,484.019989,0.05877167,484.019989,0.008365192,484.019989,0.049773116
485.0700073,0.118158415,485.0700073,0.034315322,485.0700073,0.008441241,485.0700073,0.02471862
485.9700012,0.042108454,485.9700012,0.042731024,485.9700012,-0.016690869,485.9700012,0.058096107
487.0100098,0.050432883,487.0100098,0.051230382,487.0100098,0.008609334,487.0100098,0.082856216
488.0499878,0.058720399,488.0499878,0.058725819,488.0499878,0.042423934,488.0499878,0.008386729
488.9500122,-0.016952313,488.9500122,0.042052854,488.9500122,-0.050786775,488.9500122,0.075815655
490,0.042207271,490,0.025945274,490,0.034335058,490,0.041846607
491.0599976,0.041900963,491.0599976,0.087534241,491.0599976,0.07001514,491.0599976,0.058240633
491.9599915,0.016769379,491.9599915,-0.034209963,491.9599915,0.068779334,491.9599915,0.00828569
493.0299988,0.025535392,493.0299988,0.025389088,493.0299988,-0.017076358,493.0299988,0.025075434
493.9299927,-0.025161875,493.9299927,0.042857021,493.9299927,0.025377061,493.9299927,0.034369282
495,0.069199957,495,0.068611816,495,-0.025871435,495,0.078911379
496.0599976,0.043580201,496.0599976,0.052016053,496.0599976,-0.008982386,496.0599976,0.077087797
496.9599915,0.052530207,496.9599915,0.044062182,496.9599915,0.02629503,496.9599915,0.051804524
498.0299988,0.086937621,498.0299988,-0.008782793,498.0299988,-0.008721285,498.0299988,0.06896849
498.9299927,0,498.9299927,0.060383867,498.9299927,-0.008882099,498.9299927,0.016937669
500,-0.017564351,500,0.008609482,500,0.025742676,500,-0.00865561
501.0400085,0.069369771,501.0400085,0.008634833,501.0400085,0.043633822,501.0400085,0.067578413
501.9400024,0.034587413,501.9400024,0.025975151,501.9400024,0,501.9400024,0.13835685
502.980011,0.026491471,502.980011,0.034515787,502.980011,0,502.980011,0.042945366
504.019989,0.060319349,504.019989,0.076718494,504.019989,0.01743968,504.019989,0.026238915
505.0700073,0.042817753,505.0700073,0.034682181,505.0700073,0.035232667,505.0700073,0.008558786
505.9700012,0.06890849,505.9700012,0.035970252,505.9700012,0.017570833,505.9700012,0.109799154
507.0100098,0.061160479,507.0100098,0.111075036,507.0100098,-0.008736218,507.0100098,0.077372096
508.0499878,0.034707461,508.0499878,0.076574892,508.0499878,0.017333727,508.0499878,0.033935692
508.9500122,0.078256786,508.9500122,0.113089703,508.9500122,0.052125867,508.9500122,0.067230277
510,0.086354293,510,0.069279671,510,0.008619798,510,0.077895775
511.0400085,0.119576365,511.0400085,0.077695385,511.0400085,0.095459595,511.0400085,0.042826921
511.9400024,0.086010404,511.9400024,0.137594163,511.9400024,0.042686518,511.9400024,0.205526963
512.9799805,0.139596567,512.9799805,0.104906112,512.9799805,0.008697013,512.9799805,0.136396572
514.0200195,0.155000046,514.0200195,0.128576577,514.0200195,0.051834513,514.0200195,0.092790201
515.0700073,0.069269463,515.0700073,0.087706216,515.0700073,0.086183861,515.0700073,0.033832647
515.9699707,0.130046904,515.9699707,0.131782413,515.9699707,0.068144843,515.9699707,0.1102461
517.0100098,0.067971729,517.0100098,0.152791143,517.0100098,0.069085822,517.0100098,0.12921454
518.0499878,0.079001427,518.0499878,0.105586395,518.0499878,0.052160759,518.0499878,0.136515275
518.9500122,0.188654974,518.9500122,0.19621484,518.9500122,0.086685911,518.9500122,0.170813158
520,0.051286872,520,0.139753863,520,0.017054224,520,0.127014235
521.039978,0.076489635,521.039978,0.101183854,521.039978,0.164318636,521.039978,0.138655394
521.9400024,0.128248975,521.9400024,0.204418853,521.9400024,0.102545694,521.9400024,0.0840322
522.9799805,0.05162356,522.9799805,0.104579717,522.9799805,0.068638891,522.9799805,0.119056724
524.0200195,0.136269957,524.0200195,0.120494366,524.0200195,0.07730896,524.0200195,0.076809503
525.0700073,0.093413502,525.0700073,0.234733626,525.0700073,0.077386737,525.0700073,0.162107736
525.9699707,0.034125034,525.9699707,0.070604019,525.9699707,0.110616647,525.9699707,0.177726626
527.0100098,0.208710179,527.0100098,0.138276726,527.0100098,0.05955774,527.0100098,0.137106031
528.0499878,0.10370665,528.0499878,0.15753682,528.0499878,0.086391598,528.0499878,0.163613975
528.9500122,0.185789749,528.9500122,0.187817484,528.9500122,0.034114268,528.9500122,0.145398557
530,0.167241737,530,0.161995798,530,0.172540233,530,0.178650424
531.039978,0.129420802,531.039978,0.205671385,531.039978,0.111206159,531.039978,0.192716986
531.9400024,0.21415478,531.9400024,0.214180455,531.9400024,0.145567894,531.9400024,0.204586133
532.9799805,0.182125673,532.9799805,0.179768354,532.9799805,0.181747362,532.9799805,0.187146455
534.0200195,0.163718298,534.0200195,0.136843354,534.0200195,0.157761887,534.0200195,0.168557316
535.0700073,0.147993386,535.0700073,0.128924683,535.0700073,0.18815963,535.0700073,0.171952784
535.9699707,0.279144406,535.9699707,0.182002544,535.9699707,0.195378855,535.9699707,0.160788029
537.0100098,0.171762273,537.0100098,0.223061085,537.0100098,0.104417741,537.0100098,0.239365339
538.0499878,0.197949916,538.0499878,0.278098851,538.0499878,0.156094179,538.0499878,0.19218877
538.9500122,0.189571828,538.9500122,0.260919482,538.9500122,0.105201334,538.9500122,0.187633261
540,0.17037952,540,0.192401871,540,0.093033485,540,0.260119498
541.0200195,0.194430456,541.0200195,0.181936324,541.0200195,0.128720015,541.0200195,0.230828419
542.0499878,0.203024179,542.0499878,0.216128364,542.0499878,0.146000445,542.0499878,0.223089799
542.9400024,0.192332909,542.9400024,0.206513792,542.9400024,0.207607061,542.9400024,0.26761052
543.9699707,0.194416702,543.9699707,0.212642908,543.9699707,0.20806782,543.9699707,0.246474981
545,0.214327365,545,0.233031824,545,0.146481007,545,0.213243261
546.0200195,0.165213093,546.0200195,0.221302971,546.0200195,0.20595479,546.0200195,0.212827534
547.0499878,0.203101277,547.0499878,0.205402076,547.0499878,0.12859641,547.0499878,0.203541622
547.9400024,0.16670762,547.9400024,0.250466377,547.9400024,0.215196297,547.9400024,0.238413528
548.9699707,0.157930762,548.9699707,0.223342747,548.9699707,0.214202479,548.9699707,0.230477691
550,0.1681059,550,0.238822267,550,0.164125592,550,0.29290399
551.039978,0.194962859,551.039978,0.260026157,551.039978,0.164170981,551.039978,0.207372084
551.9400024,0.193701178,551.9400024,0.318058193,551.9400024,0.17926769,551.9400024,0.289152533
552.9799805,0.17115815,552.9799805,0.224437833,552.9799805,0.137830034,552.9799805,0.327123702
554.0200195,0.227509379,554.0200195,0.270619959,554.0200195,0.183693275,554.0200195,0.244710326
555.0700073,0.157513395,555.0700073,0.256088495,555.0700073,0.217451811,555.0700073,0.272419244
555.9699707,0.262800962,555.9699707,0.314564318,555.9699707,0.220758051,555.9699707,0.245407075
557.0100098,0.208096698,557.0100098,0.299729377,557.0100098,0.207705885,557.0100098,0.21477294
558.0499878,0.193467826,558.0499878,0.235787496,558.0499878,0.154849365,558.0499878,0.205899
558.9500122,0.217716932,558.9500122,0.219383359,558.9500122,0.165756464,558.9500122,0.190377295
560,0.234285519,560,0.214544386,560,0.077142634,560,0.186600402
561.0200195,0.228022173,561.0200195,0.237810105,561.0200195,0.25094536,561.0200195,0.220501557
562.0499878,0.265904963,562.0499878,0.24661541,562.0499878,0.184995949,562.0499878,0.171436906
562.9400024,0.239385799,562.9400024,0.196126908,562.9400024,0.189593062,562.9400024,0.196312726
563.9699707,0.169723094,563.9699707,0.181192234,563.9699707,0.145987913,563.9699707,0.137116611
565,0.169828296,565,0.205906078,565,0.094598427,565,0.223438725
566.0200195,0.200482905,566.0200195,0.26376918,566.0200195,0.124783851,566.0200195,0.201379895
567.0499878,0.174165964,567.0499878,0.197265714,567.0499878,0.225582823,567.0499878,0.281226814
567.9400024,0.204419002,567.9400024,0.241813779,567.9400024,0.171901047,567.9400024,0.162683755
568.9699707,0.159957349,568.9699707,0.247353748,568.9699707,0.190036878,568.9699707,0.236478508
570,0.166736871,570,0.202791765,570,0.120432183,570,0.237765685
571.0200195,0.148890331,571.0200195,0.204330087,571.0200195,0.06982021,571.0200195,0.224513412
572.0499878,0.129554927,572.0499878,0.195279345,572.0499878,0.061274514,572.0499878,0.240938976
572.9400024,0.175604954,572.9400024,0.237452403,572.9400024,0.119253479,572.9400024,0.207734659
573.9699707,0.2265203,573.9699707,0.154397756,573.9699707,0.121196382,573.9699707,0.12067093
575,0.13048698,575,0.280930936,575,0.14853777,575,0.137796804
576.0200195,0.169105351,576.0200195,0.155927867,576.0200195,0.163010374,576.0200195,0.137008593
577.0499878,0.154784128,577.0499878,0.202934608,577.0499878,0.186439097,577.0499878,0.24271214
577.9400024,0.157833815,577.9400024,0.162837133,577.9400024,0.077285059,577.9400024,0.147335395
578.9699707,0.216789946,578.9699707,0.237840399,578.9699707,0.094022721,578.9699707,0.152949378
580,0.147845373,580,0.141732141,580,0.163334072,580,0.076633573
581.0200195,0.112247981,581.0200195,0.202398866,581.0200195,0.102238163,581.0200195,0.207302213
582.0499878,0.157267049,582.0499878,0.130027741,582.0499878,0.143201307,582.0499878,0.085295118
582.9400024,0.216399625,582.9400024,0.131866962,582.9400024,0.177881688,582.9400024,0.160801634
583.9699707,0.104282536,583.9699707,0.266108125,583.9699707,0.129539266,583.9699707,0.146212667
585,0.182643637,585,0.078746356,585,0.077234656,585,0.169965416
586.0200195,0.138028607,586.0200195,0.120887667,586.0200195,0.101862378,586.0200195,0.103084818
587.0499878,0.086458072,587.0499878,0.197604686,587.0499878,0.109504119,587.0499878,0.12971291
587.9400024,0.137427524,587.9400024,0.130895764,587.9400024,0.127912134,587.9400024,0.185544401
588.9699707,0.102233812,588.9699707,0.060654901,588.9699707,0.102626376,588.9699707,0.07553187
590,0.060544208,590,0.085423358,590,0.120370053,590,0.138001218
591.0200195,0.163178369,591.0200195,0.119750232,591.0200195,0.092937589,591.0200195,0.127551019
592.0499878,0.103196517,592.0499878,0.144996747,592.0499878,0.084136836,592.0499878,0.15456748
592.9400024,0.105459273,592.9400024,0.077629037,592.9400024,0.152116954,592.9400024,0.136430308
593.9699707,0.204603583,593.9699707,0.078450516,593.9699707,0.145726353,593.9699707,0.076582707
595,0.154184833,595,0.146346077,595,0.083806843,595,0.135344327
596.0200195,0.080183893,596.0200195,0.042747829,596.0200195,0.050429914,596.0200195,0.164687529
597.0499878,0.094568908,597.0499878,0.155931905,597.0499878,0.084126927,597.0499878,0.144900367
597.9400024,0.070834696,597.9400024,0.094457082,597.9400024,0.109650046,597.9400024,0.084556587
598.9699707,0.07070636,598.9699707,0.068135552,598.9699707,0.145310313,598.9699707,0.17026639
600,0.138540134,600,0.077314936,600,0.05948941,600,0.100813225
601.0200195,0.084955275,601.0200195,0.13871789,601.0200195,0.050917793,601.0200195,0.07693097
602.0499878,0.088854924,602.0499878,0.127286926,602.0499878,0.025585044,602.0499878,0.06013694
602.9400024,0.072299391,602.9400024,0.086328946,602.9400024,0.10981492,602.9400024,0.076343
603.9699707,0.061620258,603.9699707,0.103236459,603.9699707,0.06823843,603.9699707,0.111726083
605,0.146149427,605,0.096196733,605,0.008391514,605,0.060532164
606.0200195,0.062570393,606.0200195,0.136715919,606.0200195,0.067659572,606.0200195,0.042193379
607.0499878,0.034631737,607.0499878,0.172041535,607.0499878,0.076325521,607.0499878,0.085397825
607.9400024,0.121437125,607.9400024,0.120436318,607.9400024,0.084646054,607.9400024,0.084855787
608.9699707,0.017354483,608.9699707,0.086200953,608.9699707,-0.008467616,608.9699707,0.144838631
610,0.036073737,610,0.095765427,610,0.017273096,610,0.076479882
611.0100098,0.034543507,611.0100098,0.136510611,611.0100098,0.104151294,611.0100098,0.050139554
612.0200195,0.034350391,612.0200195,0.076265372,612.0200195,0.078977853,612.0200195,0.102980427
613.039978,0.113957115,613.039978,0.102042556,613.039978,0.086338639,613.039978,0.119562067
614.0499878,0.095690444,614.0499878,0.087525822,614.0499878,0,614.0499878,0.06786678
615.0700073,0.104877681,615.0700073,0.042494241,615.0700073,0.026316483,615.0700073,0.076300934
615.9400024,0.051861841,615.9400024,0.085142612,615.9400024,0.043275807,615.9400024,0.025556276
616.9500122,0.01760176,616.9500122,0.146334738,616.9500122,0.060464192,616.9500122,0.034149505
617.9699707,0.12968038,617.9699707,0.060117833,617.9699707,0.042859226,617.9699707,0.076022498
618.9799805,0.042902619,618.9799805,0.059729513,618.9799805,0.061757803,618.9799805,0.052252065
620,0.069717996,620,0.016874362,620,-0.008605259,620,-0.025571305
621.0100098,0.085778743,621.0100098,0.094580539,621.0100098,0.061175443,621.0100098,0.016873794
622.0200195,0.05983673,622.0200195,0.060402628,622.0200195,0.052356478,622.0200195,0.076474689
623.039978,0.103309341,623.039978,0.017615713,623.039978,0.025418129,623.039978,0.060837824
624.0499878,0.121314004,624.0499878,0.106484935,624.0499878,0.102857731,624.0499878,0.093541391
625.0700073,0.051889647,625.0700073,0.052539404,625.0700073,0.043689109,625.0700073,0.093679205
,,,,,,,
117-164G,,,,,,,
117-164G,,,,,,,
Collection Time: 7/16/2021 3:52:20 PM,,,,,,,
Operator Name  :,,,,,,,
Scan Software Version: 1.1(132),,,,,,,
Parameter List :,,,,,,,
Instrument                        Cary Eclipse,,,,,,,
Instrument Serial Number          FL1005M016,,,,,,,
Data mode                         Fluorescence,,,,,,,
Scan mode                         Emission,,,,,,,
X Mode                            Wavelength (nm),,,,,,,
Start (nm)                        480.00,,,,,,,
Stop (nm)                         625.00,,,,,,,
Ex. Wavelength (nm)               409.00,,,,,,,
Ex. Slit (nm)                     5,,,,,,,
Em. Slit (nm)                     5,,,,,,,
Scan rate (nm/min)                600.00,,,,,,,
Data interval (nm)                1.0000,,,,,,,
Averaging Time (s)                0.1000,,,,,,,
Excitation filter                 Auto,,,,,,,
Emission filter                   Open,,,,,,,
PMT voltage (V)                   Medium,,,,,,,
Corrected spectra                 OFF,,,,,,,
Multicell holder                  Multicell,,,,,,,
Multi zero                       OFF,,,,,,,
Method Log     :,,,,,,,
Method Name    : C:\Documents and Settings\Shimon Bershtein\My Documents\Carl\L82V_muts_3.FBSW,,,,,,,
Date/Time stamp: 7/16/2021 3:52:10 PM,,,,,,,
Method Modifications:,,,,,,,
Excitation Wavelength Changed: 7/16/2021 2:40:47 PM, Old: 350.00, New: 409.00,,,,,
Cell Changer Changed: 7/16/2021 3:12:40 PM, Old:OFF, New:ON,,,,,
Cell1 Changed: 7/16/2021 3:12:40 PM, Old:OFF, New:ON,,,,,
Cell2 Changed: 7/16/2021 3:12:40 PM, Old:OFF, New:ON,,,,,
Cell3 Changed: 7/16/2021 3:12:40 PM, Old:OFF, New:ON,,,,,
Cell4 Changed: 7/16/2021 3:12:40 PM, Old:OFF, New:ON,,,,,
Monitoring device: Changed: 7/16/2021 3:12:40 PM, Old:PCB 150, New:Block,,,,,
Emission Wavelength Changed: 7/16/2021 3:12:40 PM, Old: 400.00, New: 480.00,,,,,
Stop Wavelength Changed: 7/16/2021 3:12:40 PM, Old: 600.00, New: 625.00,,,,,
Autoconvert Changed: 7/16/2021 3:13:37 PM, Old:None, New:Ascii with Log,,,,,
Post run email Changed: 7/16/2021 3:13:37 PM, Old:OFF, New:ON,,,,,
Mail Send file Changed: 7/16/2021 3:13:37 PM, Old:OFF, New:ON,,,,,
Mail To Changed: 7/16/2021 3:13:37 PM, Old:, New:carlho@college.harvard.edu,,,,,
Sample1 Changed: 7/16/2021 3:15:22 PM, Old:Sample1, New:117-164G,,,,,
Sample2 Changed: 7/16/2021 3:15:22 PM, Old:Sample2, New:164G,,,,,
Sample3 Changed: 7/16/2021 3:15:22 PM, Old:Sample3, New:117G,,,,,
Sample4 Changed: 7/16/2021 3:15:22 PM, Old:Sample4, New:WT,,,,,
Post run email Changed: 7/16/2021 3:17:42 PM, Old:ON, New:OFF,,,,,
Mail To Changed: 7/16/2021 3:17:42 PM, Old:carlho@college.harvard.edu, New:,,,,,
End Method Modifications,,,,,,,
,,,,,,,
164G,,,,,,,
164G,,,,,,,
Collection Time: 7/16/2021 3:52:40 PM,,,,,,,
Operator Name  :,,,,,,,
Scan Software Version: 1.1(132),,,,,,,
Parameter List :,,,,,,,
Instrument                        Cary Eclipse,,,,,,,
Instrument Serial Number          FL1005M016,,,,,,,
Data mode                         Fluorescence,,,,,,,
Scan mode                         Emission,,,,,,,
X Mode                            Wavelength (nm),,,,,,,
Start (nm)                        480.00,,,,,,,
Stop (nm)                         625.00,,,,,,,
Ex. Wavelength (nm)               409.00,,,,,,,
Ex. Slit (nm)                     5,,,,,,,
Em. Slit (nm)                     5,,,,,,,
Scan rate (nm/min)                600.00,,,,,,,
Data interval (nm)                1.0000,,,,,,,
Averaging Time (s)                0.1000,,,,,,,
Excitation filter                 Auto,,,,,,,
Emission filter                   Open,,,,,,,
PMT voltage (V)                   Medium,,,,,,,
Corrected spectra                 OFF,,,,,,,
Multicell holder                  Multicell,,,,,,,
Multi zero                       OFF,,,,,,,
Method Log     :,,,,,,,
Method Name    : C:\Documents and Settings\Shimon Bershtein\My Documents\Carl\L82V_muts_3.FBSW,,,,,,,
Date/Time stamp: 7/16/2021 3:52:10 PM,,,,,,,
Method Modifications:,,,,,,,
Excitation Wavelength Changed: 7/16/2021 2:40:47 PM, Old: 350.00, New: 409.00,,,,,
Cell Changer Changed: 7/16/2021 3:12:40 PM, Old:OFF, New:ON,,,,,
Cell1 Changed: 7/16/2021 3:12:40 PM, Old:OFF, New:ON,,,,,
Cell2 Changed: 7/16/2021 3:12:40 PM, Old:OFF, New:ON,,,,,
Cell3 Changed: 7/16/2021 3:12:40 PM, Old:OFF, New:ON,,,,,
Cell4 Changed: 7/16/2021 3:12:40 PM, Old:OFF, New:ON,,,,,
Monitoring device: Changed: 7/16/2021 3:12:40 PM, Old:PCB 150, New:Block,,,,,
Emission Wavelength Changed: 7/16/2021 3:12:40 PM, Old: 400.00, New: 480.00,,,,,
Stop Wavelength Changed: 7/16/2021 3:12:40 PM, Old: 600.00, New: 625.00,,,,,
Autoconvert Changed: 7/16/2021 3:13:37 PM, Old:None, New:Ascii with Log,,,,,
Post run email Changed: 7/16/2021 3:13:37 PM, Old:OFF, New:ON,,,,,
Mail Send file Changed: 7/16/2021 3:13:37 PM, Old:OFF, New:ON,,,,,
Mail To Changed: 7/16/2021 3:13:37 PM, Old:, New:carlho@college.harvard.edu,,,,,
Sample1 Changed: 7/16/2021 3:15:22 PM, Old:Sample1, New:117-164G,,,,,
Sample2 Changed: 7/16/2021 3:15:22 PM, Old:Sample2, New:164G,,,,,
Sample3 Changed: 7/16/2021 3:15:22 PM, Old:Sample3, New:117G,,,,,
Sample4 Changed: 7/16/2021 3:15:22 PM, Old:Sample4, New:WT,,,,,
Post run email Changed: 7/16/2021 3:17:42 PM, Old:ON, New:OFF,,,,,
Mail To Changed: 7/16/2021 3:17:42 PM, Old:carlho@college.harvard.edu, New:,,,,,
End Method Modifications,,,,,,,
,,,,,,,
117G,,,,,,,
117G,,,,,,,
Collection Time: 7/16/2021 3:52:57 PM,,,,,,,
Operator Name  :,,,,,,,
Scan Software Version: 1.1(132),,,,,,,
Parameter List :,,,,,,,
Instrument                        Cary Eclipse,,,,,,,
Instrument Serial Number          FL1005M016,,,,,,,
Data mode                         Fluorescence,,,,,,,
Scan mode                         Emission,,,,,,,
X Mode                            Wavelength (nm),,,,,,,
Start (nm)                        480.00,,,,,,,
Stop (nm)                         625.00,,,,,,,
Ex. Wavelength (nm)               409.00,,,,,,,
Ex. Slit (nm)                     5,,,,,,,
Em. Slit (nm)                     5,,,,,,,
Scan rate (nm/min)                600.00,,,,,,,
Data interval (nm)                1.0000,,,,,,,
Averaging Time (s)                0.1000,,,,,,,
Excitation filter                 Auto,,,,,,,
Emission filter                   Open,,,,,,,
PMT voltage (V)                   Medium,,,,,,,
Corrected spectra                 OFF,,,,,,,
Multicell holder                  Multicell,,,,,,,
Multi zero                       OFF,,,,,,,
Method Log     :,,,,,,,
Method Name    : C:\Documents and Settings\Shimon Bershtein\My Documents\Carl\L82V_muts_3.FBSW,,,,,,,
Date/Time stamp: 7/16/2021 3:52:10 PM,,,,,,,
Method Modifications:,,,,,,,
Excitation Wavelength Changed: 7/16/2021 2:40:47 PM, Old: 350.00, New: 409.00,,,,,
Cell Changer Changed: 7/16/2021 3:12:40 PM, Old:OFF, New:ON,,,,,
Cell1 Changed: 7/16/2021 3:12:40 PM, Old:OFF, New:ON,,,,,
Cell2 Changed: 7/16/2021 3:12:40 PM, Old:OFF, New:ON,,,,,
Cell3 Changed: 7/16/2021 3:12:40 PM, Old:OFF, New:ON,,,,,
Cell4 Changed: 7/16/2021 3:12:40 PM, Old:OFF, New:ON,,,,,
Monitoring device: Changed: 7/16/2021 3:12:40 PM, Old:PCB 150, New:Block,,,,,
Emission Wavelength Changed: 7/16/2021 3:12:40 PM, Old: 400.00, New: 480.00,,,,,
Stop Wavelength Changed: 7/16/2021 3:12:40 PM, Old: 600.00, New: 625.00,,,,,
Autoconvert Changed: 7/16/2021 3:13:37 PM, Old:None, New:Ascii with Log,,,,,
Post run email Changed: 7/16/2021 3:13:37 PM, Old:OFF, New:ON,,,,,
Mail Send file Changed: 7/16/2021 3:13:37 PM, Old:OFF, New:ON,,,,,
Mail To Changed: 7/16/2021 3:13:37 PM, Old:, New:carlho@college.harvard.edu,,,,,
Sample1 Changed: 7/16/2021 3:15:22 PM, Old:Sample1, New:117-164G,,,,,
Sample2 Changed: 7/16/2021 3:15:22 PM, Old:Sample2, New:164G,,,,,
Sample3 Changed: 7/16/2021 3:15:22 PM, Old:Sample3, New:117G,,,,,
Sample4 Changed: 7/16/2021 3:15:22 PM, Old:Sample4, New:WT,,,,,
Post run email Changed: 7/16/2021 3:17:42 PM, Old:ON, New:OFF,,,,,
Mail To Changed: 7/16/2021 3:17:42 PM, Old:carlho@college.harvard.edu, New:,,,,,
End Method Modifications,,,,,,,
,,,,,,,
WT,,,,,,,
WT,,,,,,,
Collection Time: 7/16/2021 3:53:13 PM,,,,,,,
Operator Name  :,,,,,,,
Scan Software Version: 1.1(132),,,,,,,
Parameter List :,,,,,,,
Instrument                        Cary Eclipse,,,,,,,
Instrument Serial Number          FL1005M016,,,,,,,
Data mode                         Fluorescence,,,,,,,
Scan mode                         Emission,,,,,,,
X Mode                            Wavelength (nm),,,,,,,
Start (nm)                        480.00,,,,,,,
Stop (nm)                         625.00,,,,,,,
Ex. Wavelength (nm)               409.00,,,,,,,
Ex. Slit (nm)                     5,,,,,,,
Em. Slit (nm)                     5,,,,,,,
Scan rate (nm/min)                600.00,,,,,,,
Data interval (nm)                1.0000,,,,,,,
Averaging Time (s)                0.1000,,,,,,,
Excitation filter                 Auto,,,,,,,
Emission filter                   Open,,,,,,,
PMT voltage (V)                   Medium,,,,,,,
Corrected spectra                 OFF,,,,,,,
Multicell holder                  Multicell,,,,,,,
Multi zero                       OFF,,,,,,,
Method Log     :,,,,,,,
Method Name    : C:\Documents and Settings\Shimon Bershtein\My Documents\Carl\L82V_muts_3.FBSW,,,,,,,
Date/Time stamp: 7/16/2021 3:52:10 PM,,,,,,,
Method Modifications:,,,,,,,
Excitation Wavelength Changed: 7/16/2021 2:40:47 PM, Old: 350.00, New: 409.00,,,,,
Cell Changer Changed: 7/16/2021 3:12:40 PM, Old:OFF, New:ON,,,,,
Cell1 Changed: 7/16/2021 3:12:40 PM, Old:OFF, New:ON,,,,,
Cell2 Changed: 7/16/2021 3:12:40 PM, Old:OFF, New:ON,,,,,
Cell3 Changed: 7/16/2021 3:12:40 PM, Old:OFF, New:ON,,,,,
Cell4 Changed: 7/16/2021 3:12:40 PM, Old:OFF, New:ON,,,,,
Monitoring device: Changed: 7/16/2021 3:12:40 PM, Old:PCB 150, New:Block,,,,,
Emission Wavelength Changed: 7/16/2021 3:12:40 PM, Old: 400.00, New: 480.00,,,,,
Stop Wavelength Changed: 7/16/2021 3:12:40 PM, Old: 600.00, New: 625.00,,,,,
Autoconvert Changed: 7/16/2021 3:13:37 PM, Old:None, New:Ascii with Log,,,,,
Post run email Changed: 7/16/2021 3:13:37 PM, Old:OFF, New:ON,,,,,
Mail Send file Changed: 7/16/2021 3:13:37 PM, Old:OFF, New:ON,,,,,
Mail To Changed: 7/16/2021 3:13:37 PM, Old:, New:carlho@college.harvard.edu,,,,,
Sample1 Changed: 7/16/2021 3:15:22 PM, Old:Sample1, New:117-164G,,,,,
Sample2 Changed: 7/16/2021 3:15:22 PM, Old:Sample2, New:164G,,,,,
Sample3 Changed: 7/16/2021 3:15:22 PM, Old:Sample3, New:117G,,,,,
Sample4 Changed: 7/16/2021 3:15:22 PM, Old:Sample4, New:WT,,,,,
Post run email Changed: 7/16/2021 3:17:42 PM, Old:ON, New:OFF,,,,,
Mail To Changed: 7/16/2021 3:17:42 PM, Old:carlho@college.harvard.edu, New:,,,,,
End Method Modifications,,,,,,,